#Lambda        Dielectric Constant          Refractive Index
# [nm]        [Real]        [Imag]        [Real]        [Imag]
   10.0      0.900010      0.008899      0.948700      0.004690
   15.0      0.722304      0.102240      0.852000      0.060000
   20.0      0.714736      0.316590      0.865000      0.183000
   25.0      0.795200      0.375150      0.915000      0.205000
   30.0      0.664608      0.325144      0.838000      0.194000
   35.0      0.437017      0.456144      0.731000      0.312000
   40.0      0.337799      0.651480      0.732000      0.445000
   45.0      0.232521      0.827680      0.739000      0.560000
   50.0      0.082895      0.985272      0.732000      0.673000
   55.0      0.014445      1.287972      0.807000      0.798000
   60.0     -0.121739      1.648500      0.875000      0.942000
   65.0      0.248031      1.899040      1.040000      0.913000
   70.0      0.507056      1.753920      1.080000      0.812000
   75.0      0.611196      1.796480      1.120000      0.802000
   80.0      0.725696      1.876680      1.170000      0.802000
   85.0      0.824100      1.936000      1.210000      0.800000
   90.0      0.911919      1.961680      1.240000      0.791000
   95.0      1.007616      1.976120      1.270000      0.778000
  100.0      1.042875      1.917700      1.270000      0.755000
  105.0      1.054700      1.839600      1.260000      0.730000
  110.0      1.037751      1.753360      1.240000      0.707000
  115.0      1.023276      1.664080      1.220000      0.682000
  120.0      0.963375      1.545800      1.180000      0.655000
  125.0      0.825056      1.416360      1.110000      0.638000
  130.0      0.653856      1.314280      1.030000      0.638000
  135.0      0.452584      1.286550      0.953000      0.675000
  140.0      0.211900      1.320000      0.880000      0.750000
  145.0     -0.038249      1.382520      0.820000      0.843000
  150.0     -0.296844      1.440080      0.766000      0.940000
  155.0     -0.542500      1.483200      0.720000      1.030000
  160.0     -0.776919      1.547840      0.691000      1.120000
  165.0     -1.024639      1.661640      0.681000      1.220000
  170.0     -1.231671      1.760200      0.677000      1.300000
  175.0     -1.448775      1.863000      0.675000      1.380000
  180.0     -1.650916      1.948800      0.672000      1.450000
  185.0     -1.828516      2.029440      0.672000      1.510000
  190.0     -2.014659      2.106940      0.671000      1.570000
  195.0     -2.205316      2.190720      0.672000      1.630000
  200.0     -2.400475      2.281500      0.675000      1.690000
  205.0     -2.980450      2.780045      0.739305      1.876306
  210.0     -3.322189      3.104632      0.783261      1.985450
  215.0     -3.397320      3.175935      0.791458      2.005553
  220.0     -3.550184      3.268276      0.798450      2.046183
  225.0     -3.746899      3.359901      0.801881      2.095360
  230.0     -3.956809      3.428605      0.799623      2.143872
  235.0     -4.181077      3.480769      0.793484      2.193377
  240.0     -4.433353      3.549131      0.789195      2.248530
  245.0     -4.703137      3.643203      0.789326      2.307723
  250.0     -4.940450      3.728151      0.790178      2.359061
  255.0     -5.213069      3.815665      0.789731      2.415847
  260.0     -5.520436      3.921075      0.790776      2.479142
  265.0     -5.807105      3.994827      0.787900      2.535283
  270.0     -6.188618      4.067516      0.780046      2.607136
  275.0     -6.525899      4.219642      0.789080      2.673682
  280.0     -6.855465      4.354234      0.795666      2.736521
  285.0     -7.199637      4.567099      0.814266      2.804042
  290.0     -7.555522      4.798951      0.835274      2.872846
  295.0     -7.922920      4.935079      0.840030      2.937445
  300.0     -8.301981      5.032537      0.838553      3.000826
  305.0     -8.650341      5.173051      0.845168      3.060227
  310.0     -8.994800      5.366400      0.860000      3.120000
  315.0     -9.407643      5.564990      0.872599      3.188842
  320.0     -9.834182      5.776555      0.886287      3.258807
  325.0    -10.229221      6.013198      0.904571      3.323773
  330.0    -10.602474      6.273670      0.926562      3.385446
  335.0    -10.991703      6.549412      0.949554      3.448676
  340.0    -11.431908      6.831534      0.971021      3.517726
  345.0    -11.890680      7.124365      0.992709      3.588343
  350.0    -12.330240      7.435640      1.016972      3.655766
  355.0    -12.748032      7.772784      1.044693      3.720135
  360.0    -13.148237      8.142593      1.076385      3.782441
  365.0    -13.536573      8.550436      1.112275      3.843660
  370.0    -13.915145      8.996223      1.152097      3.904148
  375.0    -14.273180      9.462334      1.194071      3.962191
  380.0    -14.599541      9.930254      1.236361      4.016005
  385.0    -14.897304     10.398373      1.278705      4.066021
  390.0    -15.174503     10.871408      1.321438      4.113458
  395.0    -15.429686     11.352660      1.365014      4.158442
  400.0    -15.651900     11.844000      1.410000      4.200000
  405.0    -15.833319     12.342650      1.456392      4.237317
  410.0    -15.980282     12.827478      1.501878      4.270393
  415.0    -16.102644     13.273054      1.543601      4.299441
  420.0    -16.208962     13.670581      1.580445      4.325093
  425.0    -16.305817     14.036587      1.613950      4.348620
  430.0    -16.399474     14.389236      1.645830      4.371313
  435.0    -16.492802     14.735354      1.676757      4.393705
  440.0    -16.585269     15.070430      1.706353      4.415572
  445.0    -16.676200     15.389460      1.734196      4.436656
  450.0    -16.764916     15.687442      1.759865      4.456700
  455.0    -16.850739     15.959372      1.782936      4.475446
  460.0    -16.933002     16.200258      1.802989      4.492636
  465.0    -17.014673     16.409175      1.819852      4.508511
  470.0    -17.107799     16.595371      1.833979      4.524542
  475.0    -17.225825     16.769650      1.845921      4.542393
  480.0    -17.381324     16.942273      1.856208      4.563625
  485.0    -17.574820     17.115914      1.865104      4.588364
  490.0    -17.798036     17.287715      1.872677      4.615696
  495.0    -18.042495     17.454688      1.878992      4.644680
  500.0    -18.300505     17.614746      1.884164      4.674484
  505.0    -18.569812     17.772039      1.888667      4.705023
  510.0    -18.850465     17.933361      1.893124      4.736530
  515.0    -19.142523     18.105513      1.898163      4.769240
  520.0    -19.445796     18.294826      1.904371      4.803349
  525.0    -19.757338     18.502395      1.911935      4.838621
  530.0    -20.072487     18.726059      1.920791      4.874555
  535.0    -20.386557     18.963605      1.930870      4.910645
  540.0    -20.694868     19.212819      1.942104      4.946386
  545.0    -20.995243     19.470941      1.954304      4.981478
  550.0    -21.291408     19.733915      1.967002      5.016108
  555.0    -21.587938     19.997502      1.979688      5.050532
  560.0    -21.889411     20.257459      1.991851      5.085005
  565.0    -22.200372     20.509577      2.002987      5.119782
  570.0    -22.522675     20.752463      2.012914      5.154981
  575.0    -22.853349     20.989768      2.022036      5.190473
  580.0    -23.188924     21.225665      2.030816      5.226105
  585.0    -23.525929     21.464327      2.039717      5.261724
  590.0    -23.860895     21.709927      2.049202      5.297176
  595.0    -24.191249     21.965909      2.059645      5.332356
  600.0    -24.518991     22.231996      2.070958      5.367407
  605.0    -24.847572     22.506732      2.082908      5.402550
  610.0    -25.180444     22.788661      2.095261      5.438006
  615.0    -25.521059     23.076326      2.107786      5.473997
  620.0    -25.872868     23.368271      2.120247      5.510744
  625.0    -26.238019     23.663301      2.132474      5.548375
  630.0    -26.613745     23.961200      2.144529      5.586674
  635.0    -26.996124     24.261988      2.156526      5.625341
  640.0    -27.381233     24.565683      2.168582      5.664077
  645.0    -27.765149     24.872301      2.180813      5.702583
  650.0    -28.143948     25.181860      2.193335      5.740560
  655.0    -28.513847     25.494381      2.206260      5.777720
  660.0    -28.874562     25.809928      2.219602      5.814037
  665.0    -29.229498     26.128609      2.233274      5.849766
  670.0    -29.582237     26.450539      2.247183      5.885172
  675.0    -29.936359     26.775830      2.261235      5.920523
  680.0    -30.295446     27.104595      2.275338      5.956086
  685.0    -30.663080     27.436945      2.289399      5.992126
  690.0    -31.042823     27.772997      2.303325      6.028909
  695.0    -31.435987     28.113148      2.317104      6.066547
  700.0    -31.839377     28.458360      2.330877      6.104840
  705.0    -32.249266     28.809661      2.344806      6.143552
  710.0    -32.661927     29.168080      2.359054      6.182448
  715.0    -33.073632     29.534647      2.373782      6.221293
  720.0    -33.480654     29.910390      2.389152      6.259851
  725.0    -33.879264     30.296338      2.405325      6.297887
  730.0    -34.265739     30.693519      2.422463      6.335165
  735.0    -34.637804     31.102176      2.440639      6.371532
  740.0    -34.997026     31.520479      2.459687      6.407055
  745.0    -35.345599     31.946258      2.479404      6.441835
  750.0    -35.685716     32.377343      2.499588      6.475976
  755.0    -36.019572     32.811566      2.520034      6.509578
  760.0    -36.349360     33.246755      2.540540      6.542745
  765.0    -36.677273     33.680743      2.560902      6.575577
  770.0    -37.005507     34.111359      2.580917      6.608178
  775.0    -37.336254     34.536433      2.600383      6.640649
  780.0    -37.671161     34.954444      2.619152      6.673070
  785.0    -38.009814     35.366305      2.637294      6.705440
  790.0    -38.351311     35.773507      2.654930      6.737739
  795.0    -38.694752     36.177539      2.672181      6.769944
  800.0    -39.039237     36.579889      2.689166      6.802036
  805.0    -39.383865     36.982046      2.706006      6.833994
  810.0    -39.727735     37.385500      2.722821      6.865796
  815.0    -40.069947     37.791739      2.739732      6.897422
  820.0    -40.409601     38.202253      2.756858      6.928851
  825.0    -40.745795     38.618531      2.774321      6.960062
  830.0    -41.077662     39.041932      2.792232      6.991034
  835.0    -41.404689     39.472391      2.810600      7.021737
  840.0    -41.726582     39.908951      2.829372      7.052141
  845.0    -42.043054     40.350643      2.848495      7.082212
  850.0    -42.353815     40.796499      2.867914      7.111918
  855.0    -42.658578     41.245550      2.887576      7.141226
  860.0    -42.957053     41.696826      2.907426      7.170103
  865.0    -43.248952     42.149359      2.927410      7.198518
  870.0    -43.533985     42.602179      2.947475      7.226436
  875.0    -43.811865     43.054319      2.967566      7.253827
  880.0    -44.082302     43.504808      2.987629      7.280657
  885.0    -44.345009     43.952678      3.007610      7.306893
  890.0    -44.599849     44.397073      3.027460      7.332514
  895.0    -44.847574     44.837792      3.047151      7.357561
  900.0    -45.089251     45.274866      3.066664      7.382095
  905.0    -45.325947     45.708325      3.085981      7.406179
  910.0    -45.558730     46.138202      3.105083      7.429875
  915.0    -45.788666     46.564527      3.123950      7.453247
  920.0    -46.016824     46.987332      3.142565      7.476355
  925.0    -46.244269     47.406648      3.160907      7.499263
  930.0    -46.472070     47.822507      3.178960      7.522034
  935.0    -46.701293     48.234940      3.196703      7.544729
  940.0    -46.933007     48.643977      3.214117      7.567411
  945.0    -47.168278     49.049652      3.231185      7.590143
  950.0    -47.408173     49.451994      3.247887      7.612987
  955.0    -47.653747     49.851036      3.264205      7.636004
  960.0    -47.904626     50.246946      3.280159      7.659182
  965.0    -48.157741     50.640145      3.295845      7.682366
  970.0    -48.409722     51.031081      3.311366      7.705385
  975.0    -48.657199     51.420206      3.326826      7.728069
  980.0    -48.896803     51.807968      3.342328      7.750248
  985.0    -49.125162     52.194817      3.357976      7.771751
  990.0    -49.338909     52.581202      3.373872      7.792408
  995.0    -49.534947     52.967482      3.390110      7.812061
 1000.0    -49.713991     53.352758      3.406628      7.830728
 1005.0    -49.879531     53.735214      3.423251      7.848559
 1010.0    -50.035124     54.113011      3.439802      7.865703
 1015.0    -50.184327     54.484312      3.456104      7.882312
 1020.0    -50.330694     54.847279      3.471981      7.898536
 1025.0    -50.477783     55.200073      3.487256      7.914526
 1030.0    -50.629148     55.540858      3.501751      7.930433
 1035.0    -50.788302     55.867831      3.515292      7.946406
 1040.0    -50.957010     56.180584      3.527821      7.962531
 1045.0    -51.134770     56.480517      3.539427      7.978811
 1050.0    -51.320930     56.769153      3.550208      7.995244
 1055.0    -51.514837     57.048014      3.560265      8.011829
 1060.0    -51.715839     57.318622      3.569696      8.028562
 1065.0    -51.923283     57.582498      3.578600      8.045441
 1070.0    -52.136516     57.841166      3.587077      8.062466
 1075.0    -52.354885     58.096148      3.595227      8.079632
 1080.0    -52.577737     58.348946      3.603146      8.096939
 1085.0    -52.804387     58.600340      3.610895      8.114367
 1090.0    -53.034110     58.850169      3.618481      8.131877
 1095.0    -53.266178     59.098208      3.625909      8.149427
 1100.0    -53.499864     59.344233      3.633183      8.166977
 1105.0    -53.734440     59.588019      3.640308      8.184486
 1110.0    -53.969178     59.829343      3.647288      8.201913
 1115.0    -54.203350     60.067979      3.654129      8.219217
 1120.0    -54.436229     60.303704      3.660833      8.236357
 1125.0    -54.667086     60.536293      3.667406      8.253292
 1130.0    -54.895280     60.765510      3.673851      8.269986
 1135.0    -55.121450     60.990951      3.680134      8.286460
 1140.0    -55.347220     61.212079      3.686197      8.302785
 1145.0    -55.574243     61.428357      3.691982      8.319030
 1150.0    -55.804168     61.639246      3.697427      8.335265
 1155.0    -56.038647     61.844206      3.702474      8.351562
 1160.0    -56.279329     62.042700      3.707063      8.367989
 1165.0    -56.527867     62.234188      3.711136      8.384618
 1170.0    -56.785910     62.418133      3.714631      8.401518
 1175.0    -57.055110     62.593994      3.717491      8.418760
 1180.0    -57.337117     62.761234      3.719656      8.436414
 1185.0    -57.633296     62.919448      3.721078      8.454538
 1190.0    -57.942902     63.069227      3.721804      8.473111
 1195.0    -58.264246     63.211607      3.721920      8.492069
 1200.0    -58.595631     63.347627      3.721515      8.511352
 1205.0    -58.935363     63.478324      3.720676      8.530900
 1210.0    -59.281746     63.604737      3.719490      8.550651
 1215.0    -59.633086     63.727905      3.718045      8.570544
 1220.0    -59.987687     63.848865      3.716429      8.590517
 1225.0    -60.343854     63.968657      3.714729      8.610511
 1230.0    -60.699892     64.088317      3.713032      8.630463
 1235.0    -61.054105     64.208886      3.711427      8.650313
 1240.0    -61.404800     64.331400      3.710000      8.670000
 1245.0    -61.750933     64.456627      3.708813      8.689488
 1250.0    -62.094077     64.584248      3.707823      8.708845
 1255.0    -62.436455     64.713673      3.706960      8.728166
 1260.0    -62.780291     64.844311      3.706154      8.747544
 1265.0    -63.127811     64.975571      3.705337      8.767073
 1270.0    -63.481239     65.106862      3.704437      8.786846
 1275.0    -63.842799     65.237596      3.703386      8.806959
 1280.0    -64.214715     65.367180      3.702113      8.827503
 1285.0    -64.599213     65.495025      3.700550      8.848574
 1290.0    -64.998515     65.620540      3.698627      8.870266
 1295.0    -65.414848     65.743134      3.696274      8.892671
 1300.0    -65.850435     65.862218      3.693422      8.915885
 1305.0    -66.307500     65.977200      3.690000      8.940000
 1310.0    -66.787522     66.087795      3.685968      8.965081
 1315.0    -67.288993     66.194939      3.681399      8.991070
 1320.0    -67.809657     66.299872      3.676393      9.017880
 1325.0    -68.347262     66.403833      3.671053      9.045424
 1330.0    -68.899552     66.508064      3.665479      9.073616
 1335.0    -69.464273     66.613805      3.659772      9.102366
 1340.0    -70.039170     66.722295      3.654034      9.131589
 1345.0    -70.621989     66.834776      3.648367      9.161198
 1350.0    -71.210477     66.952488      3.642871      9.191104
 1355.0    -71.802377     67.076670      3.637647      9.221220
 1360.0    -72.395436     67.208564      3.632797      9.251461
 1365.0    -72.987400     67.349409      3.628423      9.281737
 1370.0    -73.576013     67.500446      3.624625      9.311963
 1375.0    -74.159022     67.662915      3.621505      9.342050
 1380.0    -74.734203     67.838029      3.619162      9.371913
 1385.0    -75.300490     68.025919      3.617621      9.401503
 1390.0    -75.858328     68.225313      3.616815      9.430822
 1395.0    -76.408261     68.434844      3.616668      9.459873
 1400.0    -76.950834     68.653146      3.617103      9.488662
 1405.0    -77.486591     68.878853      3.618045      9.517191
 1410.0    -78.016077     69.110597      3.619419      9.545466
 1415.0    -78.539836     69.347013      3.621149      9.573492
 1420.0    -79.058413     69.586734      3.623160      9.601271
 1425.0    -79.572352     69.828394      3.625375      9.628809
 1430.0    -80.082197     70.070626      3.627720      9.656110
 1435.0    -80.588494     70.312064      3.630119      9.683178
 1440.0    -81.091787     70.551342      3.632497      9.710017
 1445.0    -81.592620     70.787093      3.634777      9.736633
 1450.0    -82.091537     71.017950      3.636884      9.763028
 1455.0    -82.589084     71.242547      3.638743      9.789208
 1460.0    -83.085805     71.459522      3.640278      9.815177
 1465.0    -83.582359     71.668149      3.641442      9.840953
 1470.0    -84.079662     71.869135      3.642256      9.866584
 1475.0    -84.578663     72.063375      3.642746      9.892124
 1480.0    -85.080312     72.251769      3.642940      9.917624
 1485.0    -85.585558     72.435214      3.642865      9.943138
 1490.0    -86.095350     72.614606      3.642549      9.968717
 1495.0    -86.610639     72.790844      3.642020      9.994416
 1500.0    -87.132373     72.964826      3.641304     10.020286
 1505.0    -87.661502     73.137449      3.640431     10.046380
 1510.0    -88.198975     73.309610      3.639427     10.072751
 1515.0    -88.745742     73.482207      3.638320     10.099451
 1520.0    -89.302753     73.656138      3.637137     10.126533
 1525.0    -89.870957     73.832301      3.635907     10.154050
 1530.0    -90.451303     74.011592      3.634656     10.182055
 1535.0    -91.044740     74.194910      3.633412     10.210599
 1540.0    -91.652220     74.383153      3.632203     10.239737
 1545.0    -92.274690     74.577217      3.631057     10.269519
 1550.0    -92.913100     74.778000      3.630000     10.300000
 1555.0    -93.568014     74.986165      3.629056     10.331212
