#Lambda        Dielectric Constant          Refractive Index
# [nm]        [Real]        [Imag]        [Real]        [Imag]
   10.0      0.918468      0.055227      0.958800      0.028800
   15.0      0.846904      0.073140      0.921766      0.039695
   20.0      0.776586      0.134264      0.887374      0.075408
   25.0      0.686475      0.231624      0.842826      0.137113
   30.0      0.560225      0.321266      0.776785      0.206722
   35.0      0.371818      0.389796      0.674961      0.289018
   40.0      0.161968      0.612791      0.630558      0.485380
   45.0      0.042662      0.827713      0.660087      0.626954
   50.0     -0.168513      1.115578      0.692788      0.805145
   55.0     -0.278509      1.652180      0.835732      0.988421
   60.0     -0.049867      2.141578      1.022888      1.046923
   65.0      0.430651      2.479308      1.213928      1.021239
   70.0      0.908798      2.315929      1.303231      0.888487
   75.0      0.857146      2.024193      1.235994      0.818831
   80.0      0.745363      1.989303      1.197840      0.830369
   85.0      0.613043      2.059477      1.175079      0.876267
   90.0      0.480768      2.175649      1.163807      0.934609
   95.0      0.450271      2.306163      1.183271      0.974442
  100.0      0.361600      2.541000      1.210000      1.050000
  105.0      0.352577      2.744660      1.248965      1.098783
  110.0      0.468707      3.022231      1.327963      1.137858
  115.0      0.744558      3.157612      1.412241      1.117962
  120.0      0.956556      3.063452      1.443252      1.061312
  125.0      1.073576      2.886559      1.441055      1.001538
  130.0      1.050981      2.711982      1.407016      0.963727
  135.0      0.944254      2.577312      1.358147      0.948830
  140.0      0.801932      2.457820      1.301424      0.944313
  145.0      0.635507      2.415722      1.251670      0.965001
  150.0      0.438466      2.372271      1.193937      0.993464
  155.0      0.216000      2.327800      1.130000      1.030000
  160.0     -0.028182      2.294100      1.064539      1.077602
  165.0     -0.321373      2.421809      1.029972      1.175652
  170.0     -0.523682      2.463484      0.998712      1.233321
  175.0     -0.747928      2.554722      0.978284      1.305722
  180.0     -0.998226      2.654523      0.958601      1.384604
  185.0     -1.224520      2.771988      0.950225      1.458578
  190.0     -1.439682      2.900059      0.948097      1.529272
  195.0     -1.702776      3.016903      0.938407      1.607343
  200.0     -1.938800      3.158400      0.940000      1.680000
  205.0     -2.195996      3.312750      0.943042      1.756469
  210.0     -2.368173      3.528380      0.969856      1.819009
  215.0     -2.603060      3.608782      0.960829      1.877801
  220.0     -2.887734      3.829594      0.976919      1.960118
  225.0     -3.121555      4.005492      0.989090      2.024822
  230.0     -3.388734      4.197645      1.001500      2.095660
  235.0     -3.643199      4.440349      1.024836      2.166424
  240.0     -3.939637      4.711980      1.049332      2.245151
  245.0     -4.181243      5.007934      1.082298      2.313617
  250.0     -4.417870      5.281991      1.110912      2.377324
  255.0     -4.670369      5.612660      1.146989      2.446702
  260.0     -4.883482      6.020722      1.197668      2.513444
  265.0     -5.031496      6.450639      1.254862      2.570338
  270.0     -5.049759      6.849565      1.315310      2.603761
  275.0     -5.141354      7.221301      1.364423      2.646275
  280.0     -5.107770      7.635760      1.428035      2.673523
  285.0     -5.046792      7.969039      1.480928      2.690586
  290.0     -4.978680      8.259014      1.527188      2.703963
  295.0     -4.853026      8.554206      1.578274      2.709985
  300.0     -4.724999      8.712151      1.610302      2.705149
  305.0     -4.601863      8.772792      1.628589      2.693374
  310.0     -4.492800      8.790400      1.640000      2.680000
  315.0     -4.430858      8.777046      1.643334      2.670465
  320.0     -4.472708      8.738842      1.634686      2.672993
  325.0     -4.606654      8.680048      1.615585      2.686398
  330.0     -4.744249      8.606118      1.594122      2.699189
  335.0     -4.928546      8.541750      1.570522      2.719392
  340.0     -5.242837      8.517979      1.542695      2.760910
  345.0     -5.633684      8.549430      1.517398      2.817123
  350.0     -6.026565      8.647120      1.502270      2.878076
  355.0     -6.390130      8.824185      1.500788      2.939809
  360.0     -6.707077      9.075434      1.512835      2.999260
  365.0     -6.976450      9.348966      1.531120      3.053000
  370.0     -7.206214      9.603113      1.549229      3.099485
  375.0     -7.425753      9.854412      1.567368      3.143645
  380.0     -7.661722     10.126904      1.586966      3.190549
  385.0     -7.896713     10.416190      1.608487      3.237833
  390.0     -8.097826     10.707309      1.631986      3.280480
  395.0     -8.258810     10.989454      1.656490      3.317113
  400.0     -8.400100     11.256000      1.680000      3.350000
  405.0     -8.539499     11.501960      1.700883      3.381163
  410.0     -8.679648     11.728183      1.719158      3.411014
  415.0     -8.819447     11.937025      1.735257      3.439568
  420.0     -8.960515     12.133546      1.749732      3.467305
  425.0     -9.108609     12.326919      1.763312      3.495415
  430.0     -9.269712     12.526382      1.776720      3.525114
  435.0     -9.446921     12.734672      1.790112      3.556886
  440.0     -9.640456     12.948023      1.803082      3.590488
  445.0     -9.850295     13.162529      1.815219      3.625637
  450.0    -10.072925     13.378779      1.826777      3.661942
  455.0    -10.300747     13.602618      1.838783      3.698877
  460.0    -10.525937     13.840179      1.852310      3.735911
  465.0    -10.743735     14.094774      1.867958      3.772694
  470.0    -10.957030     14.362653      1.885148      3.809337
  475.0    -11.169885     14.638983      1.903122      3.846015
  480.0    -11.386079     14.919204      1.921165      3.882893
  485.0    -11.605428     15.202493      1.939175      3.919909
  490.0    -11.824856     15.490758      1.957496      3.956840
  495.0    -12.041222     15.785972      1.976484      3.993459
  500.0    -12.251305     16.089722      1.996457      4.029520
  505.0    -12.451350     16.400943      2.017477      4.064637
  510.0    -12.637373     16.717446      2.039494      4.098364
  515.0    -12.805389     17.037037      2.062459      4.130255
  520.0    -12.951964     17.357601      2.086306      4.159921
  525.0    -13.079767     17.677892      2.110784      4.187581
  530.0    -13.195263     17.997210      2.135521      4.213837
  535.0    -13.304976     18.314859      2.160148      4.239295
  540.0    -13.415418     18.630146      2.184295      4.264560
  545.0    -13.530299     18.942307      2.207720      4.289969
  550.0    -13.646708     19.250415      2.230490      4.315222
  555.0    -13.760779     19.553520      2.252718      4.339927
  560.0    -13.868647     19.850671      2.274513      4.363691
  565.0    -13.966466     20.140923      2.295986      4.386126
  570.0    -14.052264     20.423718      2.317194      4.407035
  575.0    -14.127420     20.699200      2.338096      4.426564
  580.0    -14.193660     20.967580      2.358639      4.444897
  585.0    -14.252710     21.229075      2.378773      4.462219
  590.0    -14.306297     21.483896      2.398447      4.478711
  595.0    -14.356248     21.732144      2.417596      4.494557
  600.0    -14.404895     21.973331      2.436084      4.509935
  605.0    -14.454735     22.206785      2.453753      4.525022
  610.0    -14.508264     22.431834      2.470446      4.539996
  615.0    -14.567977     22.647805      2.486005      4.555032
  620.0    -14.636369     22.854024      2.500272      4.570309
  625.0    -14.715286     23.050362      2.513162      4.585972
  630.0    -14.804126     23.238720      2.524869      4.602052
  635.0    -14.901710     23.421484      2.535649      4.618551
  640.0    -15.006857     23.601037      2.545761      4.635472
  645.0    -15.118390     23.779763      2.555462      4.652817
  650.0    -15.235130     23.960046      2.565010      4.670589
  655.0    -15.355890     24.144189      2.574656      4.688787
  660.0    -15.479330     24.332436      2.584486      4.707311
  665.0    -15.603946     24.522870      2.594412      4.725959
  670.0    -15.728224     24.713466      2.604338      4.744522
  675.0    -15.850652     24.902202      2.614167      4.762794
  680.0    -15.969717     25.087053      2.623802      4.780566
  685.0    -16.083907     25.265998      2.633149      4.797631
  690.0    -16.191717     25.437017      2.642110      4.813782
  695.0    -16.292782     25.598776      2.650596      4.828934
  700.0    -16.389009     25.751303      2.658531      4.843244
  705.0    -16.482574     25.894789      2.665839      4.856899
  710.0    -16.575656     26.029425      2.672446      4.870085
  715.0    -16.670431     26.155402      2.678277      4.882988
  720.0    -16.769076     26.272909      2.683257      4.895796
  725.0    -16.873768     26.382139      2.687311      4.908693
  730.0    -16.986684     26.483281      2.690365      4.921868
  735.0    -17.109803     26.576854      2.692381      4.935500
  740.0    -17.244579     26.664239      2.693421      4.949753
  745.0    -17.392379     26.746959      2.693563      4.964788
  750.0    -17.554572     26.826537      2.692885      4.980768
  755.0    -17.732525     26.904495      2.691465      4.997853
  760.0    -17.927608     26.982356      2.689381      5.016206
  765.0    -18.141188     27.061644      2.686711      5.035987
  770.0    -18.374632     27.143880      2.683532      5.057358
  775.0    -18.629310     27.230588      2.679924      5.080481
  780.0    -18.905825     27.323112      2.675977      5.105449
  785.0    -19.201901     27.422130      2.671831      5.132103
  790.0    -19.514583     27.528161      2.667640      5.160224
  795.0    -19.840916     27.641724      2.663556      5.189593
  800.0    -20.177947     27.763340      2.659731      5.219991
  805.0    -20.522721     27.893526      2.656318      5.251197
  810.0    -20.872284     28.032803      2.653470      5.282993
  815.0    -21.223680     28.181690      2.651338      5.315161
  820.0    -21.573957     28.340707      2.650076      5.347479
  825.0    -21.920159     28.510373      2.649836      5.379730
  830.0    -22.259496     28.691134      2.650758      5.411705
  835.0    -22.591010     28.882626      2.652844      5.443315
  840.0    -22.914878     29.083981      2.656008      5.474549
  845.0    -23.231296     29.294323      2.660167      5.505394
  850.0    -23.540460     29.512775      2.665232      5.535839
  855.0    -23.842565     29.738460      2.671120      5.565871
  860.0    -24.137807     29.970504      2.677744      5.595480
  865.0    -24.426382     30.208030      2.685018      5.624653
  870.0    -24.708486     30.450161      2.692856      5.653379
  875.0    -24.984313     30.696021      2.701174      5.681646
  880.0    -25.254060     30.944735      2.709884      5.709442
  885.0    -25.517923     31.195426      2.718901      5.736755
  890.0    -25.776115     31.447278      2.728146      5.763578
  895.0    -26.028963     31.699824      2.737572      5.789922
  900.0    -26.276830     31.952720      2.747144      5.815807
  905.0    -26.520081     32.205623      2.756828      5.841251
  910.0    -26.759078     32.458190      2.766590      5.866274
  915.0    -26.994188     32.710077      2.776396      5.890896
  920.0    -27.225773     32.960942      2.786212      5.915136
  925.0    -27.454198     33.210440      2.796002      5.939012
  930.0    -27.679827     33.458229      2.805733      5.962544
  935.0    -27.903024     33.703965      2.815370      5.985752
  940.0    -28.124153     33.947305      2.824879      6.008655
  945.0    -28.343578     34.187905      2.834226      6.031272
  950.0    -28.561665     34.425423      2.843376      6.053621
  955.0    -28.778775     34.659517      2.852295      6.075724
  960.0    -28.995280     34.890008      2.860961      6.097602
  965.0    -29.211558     35.117032      2.869374      6.119283
  970.0    -29.427988     35.340757      2.877536      6.140799
  975.0    -29.644951     35.561350      2.885451      6.162178
  980.0    -29.862826     35.778981      2.893120      6.183450
  985.0    -30.081994     35.993817      2.900546      6.204644
  990.0    -30.302834     36.206027      2.907732      6.225791
  995.0    -30.525726     36.415780      2.914681      6.246919
 1000.0    -30.751050     36.623244      2.921395      6.268059
 1005.0    -30.979187     36.828587      2.927876      6.289240
 1010.0    -31.210515     37.031978      2.934128      6.310492
 1015.0    -31.445414     37.233585      2.940153      6.331844
 1020.0    -31.684266     37.433576      2.945952      6.353326
 1025.0    -31.927449     37.632120      2.951530      6.374968
 1030.0    -32.175344     37.829385      2.956889      6.396798
 1035.0    -32.428321     38.025539      2.962031      6.418847
 1040.0    -32.686411     38.220730      2.966966      6.441121
 1045.0    -32.949204     38.415079      2.971714      6.463598
 1050.0    -33.216258     38.608707      2.976293      6.486253
 1055.0    -33.487131     38.801732      2.980725      6.509063
 1060.0    -33.761384     38.994276      2.985027      6.532003
 1065.0    -34.038575     39.186457      2.989220      6.555049
 1070.0    -34.318263     39.378396      2.993324      6.578177
 1075.0    -34.600007     39.570213      2.997359      6.601363
 1080.0    -34.883367     39.762026      3.001343      6.624582
 1085.0    -35.167901     39.953957      3.005297      6.647811
 1090.0    -35.453168     40.146125      3.009240      6.671025
 1095.0    -35.738728     40.338649      3.013192      6.694201
 1100.0    -36.024140     40.531650      3.017173      6.717313
 1105.0    -36.308962     40.725248      3.021201      6.740338
 1110.0    -36.592753     40.919561      3.025298      6.763252
 1115.0    -36.875073     41.114711      3.029483      6.786030
 1120.0    -37.155481     41.310817      3.033774      6.808648
 1125.0    -37.433536     41.507999      3.038193      6.831083
 1130.0    -37.708821     41.706366      3.042756      6.853311
 1135.0    -37.981300     41.905870      3.047464      6.875329
 1140.0    -38.251224     42.106341      3.052299      6.897148
 1145.0    -38.518853     42.307607      3.057246      6.918780
 1150.0    -38.784448     42.509495      3.062286      6.940237
 1155.0    -39.048268     42.711832      3.067404      6.961531
 1160.0    -39.310573     42.914446      3.072582      6.982673
 1165.0    -39.571623     43.117164      3.077804      7.003676
 1170.0    -39.831679     43.319813      3.083053      7.024551
 1175.0    -40.091000     43.522221      3.088312      7.045310
 1180.0    -40.349846     43.724215      3.093565      7.065964
 1185.0    -40.608478     43.925622      3.098795      7.086527
 1190.0    -40.867154     44.126270      3.103985      7.107008
 1195.0    -41.126136     44.325986      3.109118      7.127422
 1200.0    -41.385683     44.524597      3.114178      7.147778
 1205.0    -41.646055     44.721931      3.119147      7.168089
 1210.0    -41.907512     44.917815      3.124010      7.188367
 1215.0    -42.170314     45.112076      3.128749      7.208624
 1220.0    -42.434721     45.304542      3.133347      7.228871
 1225.0    -42.700993     45.495040      3.137788      7.249120
 1230.0    -42.969391     45.683398      3.142055      7.269384
 1235.0    -43.240173     45.869442      3.146131      7.289673
 1240.0    -43.513600     46.053000      3.150000      7.310000
 1245.0    -43.789875     46.233938      3.153648      7.330374
 1250.0    -44.068973     46.412275      3.157078      7.350795
 1255.0    -44.350813     46.588070      3.160297      7.371259
 1260.0    -44.635311     46.761381      3.163309      7.391763
 1265.0    -44.922386     46.932266      3.166122      7.412306
 1270.0    -45.211957     47.100783      3.168742      7.432882
 1275.0    -45.503940     47.266990      3.171174      7.453491
 1280.0    -45.798255     47.430945      3.173426      7.474127
 1285.0    -46.094819     47.592707      3.175503      7.494790
 1290.0    -46.393550     47.752333      3.177411      7.515474
 1295.0    -46.694367     47.909882      3.179156      7.536179
 1300.0    -46.997187     48.065412      3.180745      7.556900
 1305.0    -47.301928     48.218981      3.182185      7.577634
 1310.0    -47.608508     48.370647      3.183480      7.598379
 1315.0    -47.916846     48.520468      3.184637      7.619131
 1320.0    -48.226860     48.668503      3.185663      7.639888
 1325.0    -48.538467     48.814809      3.186564      7.660646
 1330.0    -48.851585     48.959445      3.187346      7.681403
 1335.0    -49.166133     49.102468      3.188014      7.702155
 1340.0    -49.482028     49.243938      3.188576      7.722900
 1345.0    -49.799189     49.383912      3.189037      7.743634
 1350.0    -50.117534     49.522448      3.189403      7.764355
 1355.0    -50.436980     49.659604      3.189682      7.785059
 1360.0    -50.757446     49.795439      3.189878      7.805743
 1365.0    -51.078850     49.930010      3.189998      7.826406
 1370.0    -51.401109     50.063376      3.190049      7.847042
 1375.0    -51.724143     50.195595      3.190036      7.867650
 1380.0    -52.047870     50.326724      3.189965      7.888227
 1385.0    -52.372297     50.456792      3.189840      7.908773
 1390.0    -52.697538     50.585787      3.189658      7.929294
 1395.0    -53.023718     50.713698      3.189416      7.949797
 1400.0    -53.350959     50.840511      3.189114      7.970288
 1405.0    -53.679385     50.966213      3.188747      7.990772
 1410.0    -54.009118     51.090792      3.188314      8.011257
 1415.0    -54.340282     51.214235      3.187813      8.031747
 1420.0    -54.672999     51.336528      3.187241      8.052251
 1425.0    -55.007394     51.457660      3.186596      8.072773
 1430.0    -55.343589     51.577617      3.185876      8.093320
 1435.0    -55.681708     51.696386      3.185078      8.113898
 1440.0    -56.021873     51.813955      3.184200      8.134513
 1445.0    -56.364207     51.930311      3.183240      8.155171
 1450.0    -56.708834     52.045441      3.182196      8.175879
 1455.0    -57.055878     52.159332      3.181064      8.196643
 1460.0    -57.405460     52.271971      3.179844      8.217469
 1465.0    -57.757704     52.383346      3.178532      8.238364
 1470.0    -58.112734     52.493443      3.177126      8.259332
 1475.0    -58.470672     52.602250      3.175624      8.280381
 1480.0    -58.831642     52.709754      3.174024      8.301517
 1485.0    -59.195766     52.815942      3.172323      8.322746
 1490.0    -59.563169     52.920801      3.170519      8.344074
 1495.0    -59.933972     53.024319      3.168610      8.365508
 1500.0    -60.308300     53.126482      3.166593      8.387053
 1505.0    -60.686275     53.227278      3.164466      8.408716
 1510.0    -61.068021     53.326694      3.162227      8.430502
 1515.0    -61.453660     53.424717      3.159874      8.452419
 1520.0    -61.843316     53.521335      3.157404      8.474472
 1525.0    -62.237112     53.616533      3.154814      8.496668
 1530.0    -62.635171     53.710301      3.152104      8.519012
 1535.0    -63.037616     53.802624      3.149269      8.541511
 1540.0    -63.444570     53.893490      3.146309      8.564172
 1545.0    -63.856157     53.982886      3.143220      8.586999
 1550.0    -64.272500     54.070800      3.140000      8.610000
 1555.0    -64.693695     54.157230      3.136649      8.633179
